function [] = processRamanGatingDataPlusPoint4()

dataBackground = [
1660.49	95
1659.55	95.7
1658.61	97.25
1657.67	94.3
1656.73	95.25
1655.79	94.65
1654.85	96.9
1653.91	95.4
1652.97	95.35
1652.03	97.3
1651.09	95.8
1650.15	96.5
1649.21	95.7
1648.27	95.35
1647.33	96.3
1646.39	96.35
1645.45	96.85
1644.51	96.55
1643.57	96.3
1642.63	96.15
1641.69	97.85
1640.75	96.65
1639.8	96.8
1638.86	97.35
1637.92	97.45
1636.98	96.95
1636.04	96.55
1635.1	97.8
1634.15	98.1
1633.21	97.15
1632.27	98.3
1631.33	97.8
1630.38	96.95
1629.44	98.1
1628.5	97.7
1627.55	97.9
1626.61	100.35
1625.67	100.05
1624.73	99.25
1623.78	100.65
1622.84	100.1
1621.9	102.75
1620.95	99.85
1620.01	101.95
1619.07	101.05
1618.12	101.55
1617.18	101.95
1616.23	100.75
1615.29	101.25
1614.34	102.45
1613.4	101.1
1612.46	102.2
1611.51	101.2
1610.57	101
1609.62	102.1
1608.68	103.25
1607.73	101.8
1606.78	103.25
1605.84	102.2
1604.9	101.65
1603.95	103.65
1603	102.9
1602.06	103.5
1601.11	102.7
1600.17	103.3
1599.22	103.05
1598.27	103.65
1597.33	103.8
1596.38	104.2
1595.43	102.4
1594.49	103.7
1593.54	103.05
1592.59	104.2
1591.65	102.4
1590.7	102.45
1589.75	104
1588.81	103.6
1587.86	104.75
1586.91	105
1585.96	102.75
1585.01	103.45
1584.07	103.1
1583.12	102.7
1582.17	102.2
1581.22	104.6
1580.27	103.9
1579.33	101.85
1578.38	103.9
1577.43	102.45
1576.48	103.45
1575.53	103.05
1574.58	103.6
1573.63	102.35
1572.68	102.55
1571.73	103
1570.78	104.3
1569.83	103.8
1568.89	103.25
1567.94	102.95
1566.99	102.8
1566.04	103.05
1565.08	102.55
1564.14	101.05
1563.18	102.45
1562.23	102.55
1561.28	100.8
1560.33	102.3
1559.38	101.4
1558.43	101.85
1557.48	100.5
1556.53	103.55
1555.58	102.75
1554.63	101
1553.68	100.85
1552.72	101.2
1551.77	102.35
1550.82	101.75
1549.87	101.2
1548.92	100.65
1547.96	100.35
1547.01	100.95
1546.06	100.25
1545.11	100.05
1544.15	100.4
1543.2	101.55
1542.25	99.25
1541.3	101.35
1540.34	99.7
1539.39	99.2
1538.44	100
1537.48	99.9
1536.53	98.95
1535.58	97.9
1534.62	99.3
1533.67	97.65
1532.72	98.7
1531.76	98.9
1530.81	98.75
1529.85	98.4
1528.9	97.55
1527.94	97.35
1526.99	97.55
1526.03	98.05
1525.08	98.2
1524.13	97.45
1523.17	97.75
1522.22	97.6
1521.26	97.35
1520.3	98.6
1519.35	96.55
1518.39	97.3
1517.44	97.95
1516.48	98
1515.53	97.55
1514.57	97.05
1513.61	97.1
1512.66	97.7
1511.7	98.55
1510.75	97.1
1509.79	96.55
1508.83	96.85
1507.87	97.2
1506.92	98.9
1505.96	97.15
1505	97.45
1504.05	97.2
1503.09	98.5
1502.13	98.45
1501.17	99.2
1500.22	100.35
1499.26	100.85
1498.3	100.3
1497.34	100.8
1496.39	101.2
1495.43	101.5
1494.47	103.65
1493.51	103.8
1492.55	104.35
1491.59	105.3
1490.63	107
1489.68	106.9
1488.72	106.85
1487.76	109.2
1486.8	108.05
1485.84	111.3
1484.88	111.15
1483.92	111.15
1482.96	111.9
1482	112.55
1481.04	115.85
1480.08	115.25
1479.12	117.55
1478.16	118.1
1477.2	119.35
1476.24	119.4
1475.28	121.2
1474.32	120.15
1473.36	123.65
1472.39	125.5
1471.43	126.05
1470.47	129.95
1469.51	130.45
1468.55	132.6
1467.59	132.85
1466.63	132.25
1465.67	135.9
1464.7	135.25
1463.74	136.15
1462.78	137.85
1461.82	141.3
1460.85	141.75
1459.89	142.05
1458.93	145.85
1457.97	147.75
1457	148
1456.04	147.1
1455.08	148.65
1454.11	147.05
1453.15	145.6
1452.19	144.9
1451.23	143.5
1450.26	141.9
1449.3	141.2
1448.33	136.4
1447.37	134.95
1446.41	130.7
1445.44	129.35
1444.48	127.4
1443.51	123.4
1442.55	120.6
1441.59	118.6
1440.62	115.6
1439.66	112.85
1438.69	112.15
1437.72	110.8
1436.76	108.6
1435.79	106.5
1434.83	106.15
1433.86	106.25
1432.9	105.5
1431.93	103.25
1430.97	105.45
1430	102.95
1429.03	102.85
1428.07	102.65
1427.1	100.5
1426.14	101.8
1425.17	100.3
1424.2	100
1423.24	99.05
1422.27	99
1421.3	100
1420.34	97.2
1419.37	99.4
1418.4	98.15
1417.43	98.8
1416.47	99.4
1415.5	99.85
1414.53	101
1413.56	99.15
1412.6	101
1411.63	99.8
1410.66	101.3
1409.69	101.4
1408.72	100.85
1407.75	101.35
1406.78	102.05
1405.82	102.7
1404.85	101
1403.88	102.35
1402.91	102.65
1401.94	100.85
1400.97	102.05
1400	102.3
1399.03	101.75
1398.06	101.8
1397.09	101.65
1396.12	99.15
1395.15	100.45
1394.18	99.7
1393.21	99.2
1392.24	98.35
1391.27	98
1390.3	98.65
1389.33	98.15
1388.36	98.25
1387.39	98.2
1386.42	98.2
1385.45	99.2
1384.47	98.85
1383.5	99.8
1382.53	98.45
1381.56	98.45
1380.59	99.8
1379.61	98.25
1378.64	98.5
1377.67	98.7
1376.7	98.8
1375.73	98.8
1374.75	98.15
1373.78	98.25
1372.81	98.1
1371.84	98.45
1370.86	98.4
1369.89	99.05
1368.92	100.1
1367.95	99.15
1366.97	100.65
1366	101.45
1365.02	101.65
1364.05	102.8
1363.08	103.4
1362.1	105.5
1361.13	105.15
1360.15	107.7
1359.18	106.9
1358.2	108.85
1357.23	108.8
1356.26	109.65
1355.28	109.55
1354.31	110.85
1353.33	110.3
1352.36	110.85
1351.38	110.8
1350.41	111.85
1349.43	110.4
1348.46	110.05
1347.48	110.8
1346.5	110.05
1345.53	111
1344.55	109
1343.58	109.4
1342.6	108.5
1341.62	109.25
1340.65	110.55
1339.67	108.8
1338.69	111.25
1337.72	113.2
1336.74	114.35
1335.76	114.4
1334.79	116.15
1333.81	117.45
1332.83	118.45
1331.85	118.3
1330.88	119
1329.9	117.5
1328.92	116.2
1327.94	114.95
1326.97	114.65
1325.99	111.05
1325.01	112.6
1324.03	110.45
1323.05	110.3
1322.07	109
1321.09	108.4
1320.11	106.95
1319.14	106.5
1318.16	105.5
1317.18	105.25
1316.2	103.6
1315.22	103.8
1314.24	103.9
1313.26	101.1
1312.28	103.6
1311.3	101
1310.32	102.1
1309.34	101.4
1308.36	101.65
1307.38	99.5
1306.4	100.55
1305.42	99.05
1304.44	100.75
1303.46	98
1302.48	97.85
1301.49	98.25
1300.51	96.8
1299.53	97.9
1298.55	97.4
1297.57	97.2
1296.59	96.65
1295.6	96.9
1294.62	95.7
1293.64	94.75
1292.66	93.55
1291.68	93.65
1290.69	92.2
1289.71	92.5
1288.73	90.75
1287.75	90.55
1286.76	90.95
1285.78	90.15
1284.8	90.55
1283.81	90
1282.83	89.7
1281.85	89.85
1280.86	90.1
1279.88	89.45
1278.9	90
1277.91	89.15
1276.93	89.55
1275.94	88.6
1274.96	89.2
1273.98	88.2
1272.99	88.65
1272.01	90.5
1271.02	89.55
1270.04	89.9
1269.05	90.05
1268.07	90.15
1267.08	91.75
1266.1	92.55
1265.11	92.15
1264.13	92.75
1263.14	92.7
1262.15	94.05
1261.17	93.65
1260.18	94.65
1259.2	92.75
1258.21	93.85
1257.22	93.9
1256.24	94.9
1255.25	96.05
1254.26	96.55
1253.28	96.55
1252.29	97.9
1251.3	98.9
1250.32	102.15
1249.33	107.2
1248.34	115.15
1247.35	126.3
1246.37	141.25
1245.38	158.9
1244.39	176.3
1243.4	188.95
1242.41	191.7
1241.43	187.95
1240.44	180.3
1239.45	166.05
1238.46	153
1237.47	141.15
1236.48	131.25
1235.5	123.5
1234.51	117
1233.52	111.05
1232.53	107.45
1231.54	104.35
1230.55	102.6
1229.56	102.25
1228.57	101.05
1227.58	97.15
1226.59	97.7
1225.6	96.95
1224.61	97
1223.62	95.25
1222.63	96.75
1221.64	96.75
1220.65	94.9
1219.66	93.75
1218.67	96.2
1217.68	95.3
1216.68	94.75
1215.69	95
1214.7	95.5
1213.71	95.25
1212.72	95.6
1211.73	95.75
1210.74	95.15
1209.74	94.9
1208.75	94.9
1207.76	95.2
1206.77	95.8
1205.77	95.55
1204.78	94.5
1203.79	94.2
1202.8	94.6
1201.8	95.45
1200.81	95.65
1199.82	95.45
1198.82	95.35
1197.83	93.2
1196.84	94.6
1195.84	95.2
1194.85	95.05
1193.86	93.2
1192.86	95.1
1191.87	93.95
1190.87	93.4
1189.88	92.95
1188.88	94.5
1187.89	92.75
1186.9	93.25
1185.9	94.55
1184.91	92.75
1183.91	93.05
1182.91	91.9
1181.92	93.9
1180.93	92.8
1179.93	91.95
1178.93	92.2
1177.94	92.95
1176.94	91.05
1175.95	90.65
1174.95	91.3
1173.95	91.15
1172.96	91.65
1171.96	91.4
1170.97	90.1
1169.97	90.5
1168.97	88.6
1167.97	89.65
1166.98	88.6
1165.98	89.35
1164.98	88.5
1163.98	88.75
1162.99	90.45
1161.99	89.45
1160.99	89.35
1159.99	90.05
1159	90.25
1158	87.85
1157	89
1156	89.65
1155	90.85
1154.01	91.1
1153.01	92.15
1152.01	93.25
1151.01	95.35
1150.01	98.9
1149.01	99.75
1148.01	104.35
1147.01	108.05
1146.01	110.8
1145.01	113.35
1144.01	116.45
1143.01	119.95
1142.01	122
1141.01	125.35
1140.01	128.75
1139.01	132
1138.01	134.8
1137.01	136.15
1136.01	133.85
1135.01	132.15
1134.01	129.7
1133.01	127.85
1132	120.2
1131	118.35
1130	114.05
1129	108.7
1128	105.9
1127	103.85
1125.99	102.4
1124.99	100.25
1123.99	98.15
1122.99	96
1121.99	95.65
1120.98	94.25
1119.98	93.5
1118.98	93.55
1117.98	92.25
1116.97	92.4
1115.97	90
1114.97	90.95
1113.96	91
1112.96	90.15
1111.96	90.45
1110.95	90.3
1109.95	91
1108.94	90.4
1107.94	91.2
1106.94	90.5
1105.93	90.25
1104.93	89.2
1103.92	89.45
1102.92	87.5
1101.91	86.3
1100.91	85.75
1099.9	85.9
1098.9	83
1097.89	82.6
1096.89	83.15
1095.88	82.15
1094.88	82.7
1093.87	82.65
1092.86	82.65
1091.86	81.25
1090.85	81.9
1089.85	80.55
1088.84	83.45
1087.83	82.1
1086.83	83.95
1085.82	82.65
1084.81	85.05
1083.81	84.9
1082.8	84.7
1081.79	86.5
1080.78	86.5
1079.78	86.25
1078.77	84.75
1077.76	85.1
1076.75	84.8
1075.75	85.65
1074.74	86.05
1073.73	86.3
1072.72	87.85
1071.71	86.4
1070.7	86.8
1069.7	88.25
1068.69	87.65
1067.68	87.1
1066.67	88.25
1065.66	86.3
1064.65	86.45
1063.64	85.3
1062.63	84.25
1061.62	83.95
1060.61	82.75
1059.6	81.95
1058.59	81.8
1057.58	81.95
1056.57	80.45
1055.56	80.95
1054.55	81.55
1053.54	81.75
1052.53	81.75
1051.52	80.6
1050.51	82.55
1049.5	81.4
1048.49	80.6
1047.47	82.7
1046.46	81.8
1045.45	83.05
1044.44	82.75
1043.43	82.7
1042.42	82.3
1041.4	83.55
1040.39	82.5
1039.38	84.3
1038.37	84.5
1037.35	84.15
1036.34	85.1
1035.33	86.95
1034.32	86.55
1033.3	88.05
1032.29	87.95
1031.28	88.8
1030.26	89.05
1029.25	90.9
1028.24	90.25
1027.22	93.05
1026.21	91.75
1025.19	92.85
1024.18	93.2
1023.17	91.45
1022.15	92.1
1021.14	91.15
1020.12	91.4
1019.11	92.75
1018.09	93.8
1017.08	93.95
1016.06	94.2
1015.05	93.05
1014.03	94.1
1013.02	94.9
1012	95.3
1010.99	97.3
1009.97	96.05
1008.95	97.3
1007.94	97
1006.92	98.7
1005.91	99.8
1004.89	98.95
1003.87	99.6
1002.86	100.25
1001.84	99.75
1000.82	100.3
999.806	99.75
998.788	100.25
997.771	100.4
996.754	101
995.737	102.05
994.718	102.4
993.701	104
992.683	104.15
991.664	105.1
990.646	106.95
989.629	108.4
988.611	110.9
987.591	112.8
986.573	115.45
985.555	115.75
984.535	117
983.516	117.55
982.498	115.95
981.477	117.3
980.458	118
979.439	116.3
978.419	118.3
977.399	116.95
976.38	117.25
975.359	117.2
974.34	117.6
973.32	116.6
972.298	117.6
971.279	116.95
970.259	116.85
969.237	117.75
968.216	117.7
967.196	117
966.174	117.65
965.153	117.8
964.133	119.35
963.11	119.4
962.089	119
961.068	120.8
960.045	122.4
959.024	121.75
958.001	123.35
956.979	125.2
955.958	123.7
954.934	124.6
953.912	123.75
952.889	123.5
951.867	123.2
950.844	122.05
949.82	122.8
948.798	122.45
947.773	120.6
946.751	119.9
945.728	120.15
944.703	120.65
943.68	120.2
942.655	120.15
941.632	119.4
940.607	117.55
939.583	115.5
938.56	112
937.534	109.2
936.51	106.55
935.485	103.35
934.461	101.55
933.435	99.1
932.41	96.4
931.384	94
930.36	92.25
929.335	91.7
928.308	87.7
927.283	88.5
926.257	87.4
925.231	86
924.204	84.65
923.179	84.75
922.152	83.25
921.126	83.2
920.098	83.9
919.073	83.6
918.045	84.5
917.019	82.45
915.991	82.55
914.964	81.2
913.936	82.7
912.91	81.25
911.881	81.35
910.854	82.85
909.826	81.55
908.799	81.5
907.77	79.9
906.742	80.9
905.713	81.4
904.684	82.15
903.656	80.85
902.627	80
901.599	80.4
900.569	80.9
899.541	81.1
898.511	81.4
897.483	80.6
896.452	81.6
895.422	82
894.393	83.5
893.362	83.55
892.334	85.05
891.303	86
890.274	87.75
889.242	90.1
888.211	92.9
887.182	93.8
886.15	97.1
885.12	99.25
884.089	99.5
883.057	100.7
882.027	100.8
880.995	98.75
879.964	98.6
878.932	98.9
877.9	99.55
876.869	98.5
875.836	97.6
874.805	97.75
873.772	95.55
872.739	96.1
871.708	96.35
870.675	95.15
869.641	93.85
868.61	93.8
867.576	91.6
866.544	90.75
865.51	88.35
864.476	87.15
863.444	87.35
862.41	85.05
861.376	85.9
860.343	83.75
859.308	83.4
858.274	82.5
857.241	83.05
856.206	82.85
855.171	82.5
854.138	82.65
853.102	81.65
852.067	81.7
851.031	81.85
849.997	82.25
848.962	82.4
847.926	82.45
846.892	82.45
845.856	81.95
844.819	82.75
843.785	83.75
842.748	84.8
841.712	84.9
840.675	85.5
839.64	85.8
838.603	87.2
837.566	87.45
836.529	88.15
835.493	86.25
834.456	87.4
833.418	87.55
832.382	86.15
831.344	85.95
830.307	87
829.268	85.2
828.232	85.7
827.194	86.75
826.155	87.35
825.117	88
824.078	87.7
823.041	87.3
822.002	86.6
820.963	86.6
819.924	87.55
818.887	86
817.847	86.5
816.808	86.65
815.768	86.7
814.729	86.6
813.691	86.9
812.651	86.75
811.611	86.55
810.57	85.25
809.53	87.1
808.491	84.25
807.451	85.05
806.41	85.55
805.369	84.75
804.328	84.1
803.289	85.35
802.248	85.75
801.207	86.65
800.165	86.15
799.124	87.6
798.082	87.4
797.042	88.9
796	87.1
794.958	87.1
793.916	88.35
792.874	87.8
791.831	85.45
790.789	87
789.748	85.75
788.705	85.35
787.662	84.45
786.619	83.7
785.576	82.95
784.533	81.7
783.49	81.4
782.446	80.05
781.404	81.35
780.361	79.8
779.317	80
778.273	79.3
777.229	79.7
776.184	78.45
775.14	78.9
774.096	79.05
773.051	79.15
772.006	80.25
770.964	79.45
769.919	79.8
768.873	81.25
767.828	80.95
766.783	82.2
765.737	83.3
764.692	84.55
763.646	85.55
762.6	85.4
761.555	86.05
760.508	85.35
759.462	84.55
758.416	84.1
757.37	84.9
756.323	84.95
755.278	87.7
754.232	88.25
753.185	90.25
752.138	93.5
751.091	97.35
750.043	104
748.996	112.25
747.948	126.65
746.901	143.55
745.853	169.35
744.805	206.3
743.757	252.45
742.709	303.85
741.661	335.45
740.613	330.85
739.564	295.7
738.516	243.25
737.467	196.35
736.418	158.6
735.369	133.65
734.32	117.05
733.271	104.85
732.221	97.6
731.172	93.35
730.122	89.45
729.073	85.6
728.023	83.85
726.973	82.7
725.923	82.75
724.873	80.8
723.82	78.45
722.77	80.2
721.719	80.25
720.669	79.7
719.618	78.5
718.567	79.35
717.516	79.85
716.465	79.4
715.414	79.6
714.362	79.45
713.311	79.35
712.259	79.7
711.207	79.7
710.155	78.7
709.103	80.5
708.049	80.65
706.997	81.1
705.944	79.25
704.892	80.45
703.839	79.9
702.787	80.25
701.734	80.1
700.681	79.3
699.628	80.05
698.574	81.15
697.519	79.45
696.466	81.3
695.412	82.45
694.358	83.75
693.304	83.6
692.25	87.4
691.196	89.25
690.142	92.75
689.086	95.85
688.031	101.25
686.977	108.15
685.922	117.1
684.867	124.6
683.812	131.2
682.757	137.4
681.7	140.95
680.644	141.55
679.589	138.95
678.533	134.7
677.478	127.35
676.422	118.65
675.364	112.85
674.308	106.25
673.252	99.7
672.195	98.05
671.139	95
670.082	93.15
669.024	90.5
667.967	90.1
666.91	90.7
665.853	87.9
664.796	87.95
663.736	88.2
662.679	86.3
661.621	87.4
660.564	87.35
659.504	86.8
658.446	87.8
657.388	87.05
656.33	87.2
655.272	88.6
654.211	88.75
653.153	88.95
652.094	88.1
651.035	87.95
649.974	88.8
648.915	87.75
647.856	88.65
646.797	88.15
645.735	89.35
644.676	89.15
643.616	89.3
642.556	88.3
641.495	89.25
640.435	89.6
639.374	90.6
638.314	89.9
637.252	91.1
636.191	90.1
635.131	92.5
634.068	91.65
633.007	91.25
631.946	91.55
630.885	93.05
629.821	93.05
628.76	91.2
627.699	93.45
626.635	93.35
625.573	94.6
624.511	95.2
623.447	95.2
622.385	96.25
621.323	97.9
620.26	99.5
619.196	99.9
618.133	101.95
617.071	100.25
616.006	99.5
614.943	97.95
613.88	94.1
612.814	94.9
611.751	93.7
610.687	91.6
609.622	90.35
608.558	91.35
607.492	89.5
606.428	89.85
605.364	90.7
604.298	91.25
603.233	92.9
602.169	92.4
601.102	93.15
600.038	95
598.973	94.3
597.906	95.05
596.841	97.45
595.773	97.05
594.708	99.1
593.642	100.65
592.575	101.2
591.509	103.6
590.441	103.65
589.375	104
588.309	103.4
587.241	102.55
586.174	102.5
585.106	103.25
584.039	101.65
582.973	102.6
581.904	102.7
580.837	102.9
579.768	104.65
578.7	104.75
577.631	107
576.563	108.85
575.496	112.25
574.426	116.2
573.358	119.8
572.288	125.15
571.22	127.45
570.15	125.85
569.081	125.8
568.011	122.6
566.942	119.4
565.874	120.1
564.803	119.7
563.734	120.1
562.662	122.65
561.593	124.5
560.522	126.65
559.452	128.95
558.381	131.3
557.311	133.55
556.239	133.4
555.169	135.6
554.097	136.6
553.027	138.4
551.954	142.95
550.884	144
549.811	144.3
548.74	144.95
547.667	144.8
546.596	142.15
545.523	141.75
544.452	145.1
543.379	145.25
542.307	150.4
541.233	152.5
540.162	154.95
539.088	161.25
538.016	167.55
536.941	173.9
535.869	181.25
534.795	189.65
533.72	197.75
532.648	208.3
531.573	221.25
530.5	236.3
529.425	254.1
528.352	276.3
527.276	305.4
526.203	340
525.127	381.6
524.052	436
522.978	491.15
521.902	550.65
520.828	599.1
519.752	609.3
518.677	581.3
517.601	529.15
516.524	457.35
515.45	388.55
514.373	321.5
513.298	269.65
512.221	225.55
511.144	193.05
510.068	167.7
508.991	147.85
507.915	132.7
506.838	121
505.76	110.75
504.684	104.45
503.606	96.5
502.528	92.8
501.451	88.25
500.373	84.8
499.296	82.15
498.217	81.15
497.139	79.2
496.062	77.9
494.983	76.9
493.903	75.6
492.826	73.65
491.746	73.45
490.667	72.3
489.589	72.25
488.509	72.4
487.429	71.25
486.351	70.45
485.271	69.7
484.191	69.9
483.112	68.9
482.031	69.9
480.951	67.95
479.872	68.35
478.791	67.85
477.71	68.9
476.63	67.4
475.549	67.75
474.467	68.4
473.388	68.55
472.306	68.4
471.224	68
470.144	68.2
469.062	68.05
467.98	67.8
466.897	66.75
465.817	67.85
464.734	67.65
463.651	67.4
462.57	68.7
461.487	68.1
460.404	68.75
459.321	68
458.239	67.75
457.156	67.2
456.072	68.05
454.988	69.1
453.906	68.7
452.822	68.45
451.738	69.5
450.654	70.3
449.571	70.2
448.487	70.35
447.402	71.3
446.317	72.05
445.234	72.5
444.149	71.85
443.064	72
441.978	72.1
440.893	74.25
439.809	73.35
438.723	73.25
437.637	73.8
436.551	74.15
435.467	75.05
434.381	74.4
433.295	75.25
432.208	75.75
431.121	75.35
430.037	75.85
428.95	76.75
427.863	78.3
426.776	78.7
425.688	79.3
424.603	78.95
423.515	81.95
422.428	81.8
421.34	84
420.252	84.8
419.164	85.4
418.078	87.65
416.989	88.8
415.901	90.85
414.812	93
413.724	95.35
412.635	98.85
411.546	101.6
410.459	103
409.369	105.3
408.28	107.45
407.191	108.4
406.101	110.3
405.011	112.25
403.921	109.65
402.833	109.5
401.743	108.75
400.653	109.4
399.563	110.25
398.472	110.75
397.381	109.5
396.291	108.75
395.2	106.2
394.111	103.1
393.02	99.45
391.928	95.4
390.837	93.05
389.745	89.85
388.654	89.55
387.562	87.6
386.47	87.3
385.378	84.75
384.285	85.65
383.193	83.85
382.103	84.25
381.01	84.8
379.917	83.9
378.825	83.9
377.732	82.85
376.638	84.7
375.545	83.2
374.452	82.8
373.358	82.45
372.265	82.3
371.171	83
370.077	83.65
368.983	85
367.889	85
366.795	85.8
365.7	86.45
364.606	87.05
363.513	87.1
362.418	88.15
361.323	88.75
360.228	89.45
359.133	91.05
358.038	90.9
356.942	92.45
355.847	95.05
354.751	96.45
353.655	97.75
352.559	98.9
351.463	102.05
350.367	102.55
349.27	104.3
348.174	104.35
347.077	106.2
345.98	108.1
344.884	110.5
343.786	117.45
342.689	122
341.592	130.05
340.495	132.55
339.397	133.9
338.299	131.6
337.202	128.1
336.102	128.4
335.004	127.5
333.905	129.15
332.807	132.9
331.709	136.15
330.61	139.05
329.511	143.75
328.412	145.55
327.313	151.2
326.214	153.75
325.115	152.05
324.016	150.25
322.916	146.1
321.817	140.5
320.717	140.6
319.617	138.35
318.517	141.95
317.417	149.2
316.314	157.7
315.214	164.25
314.113	172.2
313.013	176.15
311.912	176.65
310.811	175.35
309.71	171.45
308.609	165.95
307.507	161.5
306.406	157.75
305.304	157
304.2	156.05
303.098	155.85
301.996	159.25
300.894	162.5
299.792	166
298.69	171.45
297.587	175.35
296.485	175.05
295.38	177
294.277	175.85
293.174	175.45
292.071	176.15
290.967	179.35
289.864	183
288.76	188.65
287.656	188.2
286.551	189.8
285.447	188
284.342	189.35
283.238	190
282.134	196.45
281.029	203.1
279.923	213.35
278.818	215.25
277.713	212.9
276.608	203
275.503	190
274.398	173.9
273.29	158.15
272.184	147.85
271.079	139.4
269.973	131.45
268.867	127.15
267.759	124.2
266.653	122.25
265.546	119.2
264.44	117.55
263.333	114.85
262.224	114.2
261.117	112.6
260.01	110.2
258.903	109.2
257.796	105.65
256.687	104.8
255.579	103.6
254.471	101.3
253.364	100.8
252.254	98.4
251.145	96.8
250.037	97.55
248.929	96.2
247.82	95.55
246.71	94.95
245.601	95.9
244.492	92.55
243.383	92
242.272	94.45
241.163	92.5
240.053	92.2
238.942	92.55
237.832	92.7
236.722	90.9
235.612	90.75
234.5	91.9
233.39	91.1
232.28	91.35
231.169	91.35
230.057	91.1
228.946	91.9
227.835	92.25
226.722	90.75
225.611	91.2
224.499	91.9
223.388	90.75
222.274	90.15
221.163	89.4
220.051	90.7
218.937	90.2
217.825	90.1
216.713	89.75
215.598	90.1
214.486	90.7
213.373	90.45
212.258	90.7
211.146	90.55
210.033	89.45
208.917	90
207.804	89.9
206.691	90.75
205.575	89.2
204.462	89.85
203.348	89.4
202.232	88.4
201.118	89.55
200.003	86.3
198.887	89.05
197.773	88.2
196.658	88
195.541	90.2
194.426	88.35
193.311	89.45
192.194	87.8
191.079	88.8
189.963	89.8
188.846	90.8
187.73	90.4
186.612	92.35
185.496	90.45
184.38	93.6
183.262	94.1
182.146	94.25
181.027	95.6
179.91	96.15
178.794	97.6
177.675	98.7
176.558	100
175.438	100.45
174.321	103.1
173.204	104.25
172.084	107.35
170.966	109.7
169.847	110.85
168.729	111.7
167.611	113.65
166.49	115
165.372	116.4
